Corrected dielectric energy   =     -0.001018466
Total C-PCM charge            =     -0.000000000
C-PCM corrected charges:
     0.000529240
     0.000521109
     0.000104034
    -0.000029365
    -0.000042725
     0.000037923
     0.001331201
     0.001034153
     0.000928169
     0.000496807
    -0.000000003
     0.001339129
    -0.000000006
     0.001365068
     0.001320362
     0.001337562
    -0.000000055
     0.000927070
    -0.000004327
    -0.000012870
     0.001208130
    -0.000000447
     0.000923074
     0.001216713
    -0.000002725
     0.001326574
     0.000362259
    -0.000180390
    -0.000198214
    -0.000035008
     0.001300237
    -0.000060509
    -0.000082297
     0.001294630
     0.001323056
    -0.000145884
     0.000101324
     0.001395796
    -0.000166959
    -0.000135368
     0.001491251
    -0.000054679
     0.001494700
     0.001555813
    -0.000035964
    -0.000070239
     0.001429282
    -0.000000006
     0.001093846
    -0.000000057
     0.001171687
    -0.000131026
     0.001338960
     0.001199156
    -0.000000479
     0.001412495
    -0.000136727
     0.001311032
    -0.000164112
     0.000991555
     0.001006554
    -0.000086221
    -0.000115916
     0.001214925
    -0.000111843
     0.000379296
     0.000849185
     0.000002984
    -0.000188399
     0.000274352
    -0.000000009
     0.001322708
    -0.000000002
     0.001351302
     0.000367361
    -0.000055690
     0.001311105
    -0.000000041
     0.000420636
     0.000115289
    -0.000163425
    -0.000096665
     0.001360430
     0.000700720
    -0.000003096
    -0.000043625
     0.001069320
    -0.000001610
     0.000287928
     0.000833573
    -0.000034822
    -0.000042268
     0.000679958
    -0.000001327
     0.000154618
    -0.000030583
     0.000656843
    -0.000114596
     0.001004110
     0.000772331
    -0.000058702
     0.000656896
    -0.000056703
     0.001008305
    -0.000133336
    -0.000030804
    -0.000000435
     0.001096464
     0.000330724
     0.000979966
     0.001148039
     0.000598813
     0.000804784
     0.000962990
     0.001098819
     0.001238908
    -0.000000280
     0.001217781
    -0.000000008
     0.001238826
    -0.000060978
     0.001326174
     0.000125088
    -0.000000003
     0.001248828
    -0.000000409
     0.001227423
    -0.000148106
     0.001158563
    -0.000144701
     0.001396482
     0.000892835
    -0.000154172
    -0.000179771
     0.001362952
     0.000042154
     0.001027951
     0.001296685
    -0.000067171
     0.001306442
    -0.000169788
     0.001319858
     0.001384679
     0.001056240
     0.001455835
     0.000658023
    -0.000009141
     0.001188970
     0.001415183
    -0.000059197
     0.001005325
    -0.000062831
     0.001134066
     0.001570891
     0.000957342
    -0.000061260
     0.000367956
    -0.000001352
     0.001379914
    -0.000000091
     0.001415396
    -0.000058111
     0.001035630
     0.001441635
    -0.000000016
     0.001013286
    -0.000170243
     0.000271122
    -0.000007750
     0.001353011
    -0.000005060
    -0.000000062
     0.001356959
     0.001280337
     0.001262403
    -0.000002030
     0.001303896
     0.001264725
     0.001372774
    -0.000000801
     0.001192873
    -0.000000236
     0.001277152
    -0.000210283
    -0.000001170
    -0.000412082
    -0.000774292
    -0.000000414
    -0.001133559
    -0.000124639
    -0.000000003
    -0.000895339
    -0.000589799
    -0.000992467
    -0.000692770
    -0.000000716
    -0.000306698
    -0.000038965
    -0.000002377
    -0.000577496
    -0.000678372
    -0.000072767
    -0.000220231
    -0.000441277
    -0.000773556
    -0.000000000
    -0.000001702
    -0.000238446
    -0.001178040
    -0.000012047
    -0.001309789
    -0.000059046
    -0.000541243
    -0.000198001
    -0.000989738
    -0.000575367
    -0.000995212
    -0.000305514
    -0.001233751
    -0.000481821
    -0.000310900
    -0.000000004
    -0.000747039
    -0.000124876
    -0.000000238
    -0.000792752
    -0.001036377
    -0.000000001
    -0.000000554
    -0.000026872
    -0.000004405
    -0.000388992
    -0.000326279
    -0.000563020
    -0.001275839
    -0.000426129
    -0.001090724
    -0.000000000
    -0.000001977
    -0.000660035
    -0.000965991
    -0.000050410
    -0.000486323
    -0.000250780
    -0.000013833
    -0.000369579
    -0.000000361
    -0.001199577
    -0.000079750
    -0.000688947
    -0.000000002
    -0.000946163
    -0.000616328
    -0.000805298
    -0.000473805
    -0.000022881
    -0.000000003
    -0.000335498
    -0.000123989
    -0.000000023
    -0.000329382
    -0.000182486
    -0.000757435
    -0.000618361
    -0.000339264
    -0.000001853
    -0.000893384
    -0.000000000
    -0.000387230
    -0.000000002
    -0.001329674
    -0.000015336
    -0.001143470
    -0.000000631
    -0.001029433
    -0.000573559
    -0.000427170
    -0.000015103
    -0.001236571
    -0.000417043
    -0.000893559
    -0.000064079
    -0.000007740
    -0.000848114
    -0.000151976
    -0.000189582
    -0.000129633
    -0.000002620
    -0.001118694
    -0.000000000
    -0.000779281
    -0.000420552
    -0.000000001
    -0.000001229
    -0.000690212
    -0.000365159
    -0.001232437
    -0.000317328
    -0.000020449
    -0.001122683
    -0.000937828
    -0.000474061
    -0.000569962
    -0.000007109
    -0.000192588
    -0.000416548
    -0.000014971
    -0.000000237
    -0.000679834
    -0.000000005
    -0.000262700
    -0.001167820
    -0.000000028
    -0.000000002
    -0.000008167
    -0.000150170
    -0.000349938
    -0.000590618
    -0.000877306
    -0.000726522
    -0.001008500
    -0.000112319
    -0.000513821
    -0.000204408
    -0.000645831
    -0.000015036
    -0.001120265
    -0.000122908
    -0.001299857
    -0.000000113
    -0.000239715
    -0.000243509
    -0.000000015
    -0.000805595
    -0.000124909
    -0.000467349
    -0.000668007
    -0.001061677
    -0.000000000
    -0.000185779
    -0.000000933
    -0.000244769
    -0.000817873
    -0.000291624
    -0.000936745
    -0.000572504
    -0.001260789
    -0.000000043
    -0.000701449
    -0.000028624
    -0.000000022
    -0.001033075
    -0.000441150
    -0.001257902
    -0.000000488
    -0.000000002
    -0.001042978
    -0.000000307
    -0.000000003
    -0.000391330
    -0.000134602
    -0.000559744
    -0.000018545
    -0.000607917
    -0.000606074
    -0.001026325
    -0.000272167
    -0.000363261
    -0.000001521
    -0.000017305
    -0.001157224
    -0.000000222
    -0.000000006
    -0.000785184
    -0.000018753
    -0.000308862
    -0.000005451
    -0.000000794
    -0.000577711
    -0.000924740
    -0.000468981
    -0.000821320
    -0.000785464
    -0.000385562
    -0.000682350
    -0.000303719
    -0.000005334
    -0.001334261
    -0.000000005
    -0.000000339
    -0.001198566
    -0.000850786
    -0.000352226
    -0.000488854
    -0.000011273
    -0.000401754
    -0.000946603
    -0.000037962
    -0.000467892
    -0.000031828
    -0.000763928
    -0.000002195
    -0.000343800
    -0.000381417
    -0.001202168
    -0.000061094
    -0.000951574
    -0.001115869
    -0.000150787
    -0.000866736
    -0.000015333
    -0.000260203
    -0.001246496
    -0.001165936
    -0.000038059
    -0.000371366
    -0.000010760
    -0.000689944
    -0.000455065
    -0.000395448
    -0.000014888
    -0.000866799
    -0.000514910
