Corrected dielectric energy   =     -0.000968413
Total C-PCM charge            =     -0.000000000
C-PCM corrected charges:
     0.000515224
     0.000506890
     0.000108719
    -0.000033978
    -0.000047817
     0.000043513
     0.001300168
     0.001008231
     0.000907002
     0.000494646
    -0.000000006
     0.001301077
    -0.000000011
     0.001326911
     0.001283955
     0.001299585
    -0.000000085
     0.000906705
    -0.000005516
    -0.000015550
     0.001175875
    -0.000000633
     0.000902404
     0.001183936
    -0.000003545
     0.001289667
     0.000361232
    -0.000187383
    -0.000197971
    -0.000040235
     0.001264054
    -0.000000002
    -0.000067747
    -0.000073297
    -0.000000002
     0.001259217
     0.001285157
    -0.000154500
     0.000107907
     0.001360147
    -0.000171378
    -0.000142860
     0.001451354
    -0.000061309
     0.001455593
     0.001512873
    -0.000041288
    -0.000077820
     0.001391110
    -0.000000010
     0.001063028
    -0.000000089
     0.001139568
    -0.000125696
     0.001303237
     0.001166175
    -0.000000679
     0.001374204
    -0.000143889
     0.001277392
    -0.000166910
     0.000963375
     0.000984547
    -0.000093868
    -0.000109993
     0.001183840
    -0.000119266
     0.000380544
     0.000831773
     0.000013310
    -0.000186497
     0.000284904
    -0.000000015
     0.001286826
    -0.000000003
     0.001314389
     0.000371732
    -0.000046989
     0.001275594
    -0.000000065
     0.000422902
     0.000123471
    -0.000158810
    -0.000088163
     0.001322841
     0.000690472
    -0.000003999
    -0.000049523
     0.001042842
    -0.000002147
     0.000290925
     0.000815856
    -0.000039919
    -0.000048097
     0.000668148
    -0.000001802
     0.000161747
    -0.000035449
     0.000643369
    -0.000111369
     0.000978109
     0.000753046
    -0.000065681
     0.000646074
    -0.000063212
     0.000982740
    -0.000131477
    -0.000021664
    -0.000000619
     0.001068594
     0.000327817
     0.000956229
     0.001117287
     0.000588362
     0.000785241
     0.000939014
     0.001069910
     0.001205695
    -0.000000405
     0.001184114
    -0.000000014
     0.001205977
    -0.000067493
     0.001290084
     0.000131431
    -0.000000006
     0.001214542
    -0.000000581
     0.001194055
    -0.000145011
     0.001126970
    -0.000151243
     0.001358078
     0.000877353
    -0.000160478
    -0.000176538
     0.001329451
     0.000055644
     0.001006455
     0.001266763
    -0.000074328
     0.001272464
    -0.000174345
     0.001286918
     0.001350550
     0.001031115
     0.001421019
     0.000647582
    -0.000011239
     0.001162436
     0.001380971
    -0.000065938
     0.000978914
    -0.000069900
     0.001104659
     0.001529951
     0.000935764
    -0.000068419
     0.000369199
    -0.000001812
     0.001341762
    -0.000000137
     0.001375154
    -0.000065056
     0.001008581
     0.001401864
    -0.000000026
     0.000985324
    -0.000177366
     0.000275474
    -0.000009569
     0.001315244
    -0.000006378
    -0.000000096
     0.001319656
     0.001245465
     0.001227976
    -0.000002677
     0.001267560
     0.001230456
     0.001333809
    -0.000001100
     0.001161899
    -0.000000343
     0.001242010
    -0.000204843
    -0.000000706
    -0.000403059
    -0.000755256
    -0.000000290
    -0.001111041
    -0.000108457
    -0.000000002
    -0.000876445
    -0.000574912
    -0.000973228
    -0.000676857
    -0.000000494
    -0.000298528
    -0.000032332
    -0.000001734
    -0.000562274
    -0.000662139
    -0.000069601
    -0.000212320
    -0.000426831
    -0.000756694
    -0.000000000
    -0.000001243
    -0.000220305
    -0.001154800
    -0.000009373
    -0.001286107
    -0.000050626
    -0.000525254
    -0.000180836
    -0.000967848
    -0.000558936
    -0.000973462
    -0.000288140
    -0.001210946
    -0.000465110
    -0.000296117
    -0.000000002
    -0.000729364
    -0.000107367
    -0.000000168
    -0.000773615
    -0.001014894
    -0.000000001
    -0.000000400
    -0.000023245
    -0.000003274
    -0.000378556
    -0.000310249
    -0.000549948
    -0.001252569
    -0.000414170
    -0.001068461
    -0.000000000
    -0.000001458
    -0.000641736
    -0.000944812
    -0.000044232
    -0.000469178
    -0.000244365
    -0.000010909
    -0.000360920
    -0.000000263
    -0.001176455
    -0.000068279
    -0.000671096
    -0.000000002
    -0.000927135
    -0.000601678
    -0.000787165
    -0.000461872
    -0.000019376
    -0.000000002
    -0.000326060
    -0.000107491
    -0.000000015
    -0.000316142
    -0.000170132
    -0.000739954
    -0.000602770
    -0.000328479
    -0.000001337
    -0.000873055
    -0.000000000
    -0.000371501
    -0.000000001
    -0.001305827
    -0.000012645
    -0.001120582
    -0.000000453
    -0.001006962
    -0.000557136
    -0.000417923
    -0.000015400
    -0.001213624
    -0.000403776
    -0.000873019
    -0.000061413
    -0.000006198
    -0.000828182
    -0.000132686
    -0.000175861
    -0.000117863
    -0.000001935
    -0.001096458
    -0.000760593
    -0.000407421
    -0.000000000
    -0.000000872
    -0.000674260
    -0.000349994
    -0.001209361
    -0.000301623
    -0.000015816
    -0.001100275
    -0.000916628
    -0.000459373
    -0.000553782
    -0.000005758
    -0.000190133
    -0.000407474
    -0.000010970
    -0.000000167
    -0.000662700
    -0.000000003
    -0.000241617
    -0.001144883
    -0.000000018
    -0.000000001
    -0.000006821
    -0.000133225
    -0.000343254
    -0.000575680
    -0.000858516
    -0.000709740
    -0.000989119
    -0.000103954
    -0.000500566
    -0.000199529
    -0.000629923
    -0.000012168
    -0.001097348
    -0.000108757
    -0.001276050
    -0.000000078
    -0.000224729
    -0.000228456
    -0.000000011
    -0.000787474
    -0.000112634
    -0.000454166
    -0.000654801
    -0.001038992
    -0.000000000
    -0.000173520
    -0.000000695
    -0.000227083
    -0.000798525
    -0.000274461
    -0.000915603
    -0.000558226
    -0.001237737
    -0.000000031
    -0.000683001
    -0.000024074
    -0.000000015
    -0.001011371
    -0.000430898
    -0.001234631
    -0.000000357
    -0.000000001
    -0.001020887
    -0.000000214
    -0.000000002
    -0.000383085
    -0.000125394
    -0.000546137
    -0.000015721
    -0.000593880
    -0.000587840
    -0.001004438
    -0.000265047
    -0.000354618
    -0.000000932
    -0.000014288
    -0.001134431
    -0.000000158
    -0.000000004
    -0.000766467
    -0.000015439
    -0.000304262
    -0.000004320
    -0.000000536
    -0.000563561
    -0.000905805
    -0.000456353
    -0.000803011
    -0.000767894
    -0.000375442
    -0.000666078
    -0.000292606
    -0.000004147
    -0.001310531
    -0.000000003
    -0.000000239
    -0.001175485
    -0.000831847
    -0.000341927
    -0.000480153
    -0.000009094
    -0.000382754
    -0.000925160
    -0.000035685
    -0.000454841
    -0.000026394
    -0.000745484
    -0.000001721
    -0.000330314
    -0.000373310
    -0.001179396
    -0.000058439
    -0.000930438
    -0.001093893
    -0.000137284
    -0.000847210
    -0.000011980
    -0.000243575
    -0.001223408
    -0.001143513
    -0.000030936
    -0.000363305
    -0.000008491
    -0.000674336
    -0.000446645
    -0.000376683
    -0.000013865
    -0.000846695
    -0.000496435
